Data from 128, 0, 128_Screen_USB2G573481__0__10-21-17-812.txt Node

Date: Wed Mar 26 10:21:17 EDT 2025
User: adrie
Spectrometer: USB2G57348
Scans to average: 1
Trigger mode: 4
Integration Time (sec): 1.000000E0
Electric dark correction enabled: true
Boxcar width: 0
XAxis mode: Wavelengths
Number of Pixels in Spectrum: 651
>>>>>Begin Spectral Data<<<<<
350	52.02
351	-10
352	-16.52
353	-12.24
354	-13.26
355	-12.66
356	-12.59
357	-12.14
358	-13.77
359	-10.59
360	-18.88
361	-12.18
362	-16.03
363	-7.83
364	-14.43
365	-16.3
366	-8.26
367	-13.24
368	-12
369	-10.77
370	-12.52
371	-4.43
372	-14.85
373	-12.61
374	-12.48
375	-7.36
376	-11.66
377	-15.53
378	-12.24
379	-7.7
380	-15.9
381	-13.34
382	-14.16
383	-11.89
384	-11.2
385	-0.99
386	-11.51
387	-10.19
388	-16.97
389	-10.66
390	-11.15
391	-15.6
392	-13.29
393	-12.91
394	-8.42
395	-10.1
396	-9.14
397	-6.91
398	-17.7
399	-9.38
400	-2.44
401	-9.17
402	-7.23
403	-14.21
404	-6.92
405	-14.28
406	-13.7
407	-12.83
408	-3.33
409	-13.16
410	-14.29
411	-13.27
412	-2.96
413	10.33
414	-10.22
415	-15.06
416	-15.33
417	-10.13
418	-9.94
419	-16.23
420	-14.22
421	-8.58
422	-7.81
423	-14.06
424	-11.58
425	-9.19
426	-9.32
427	-12.19
428	-12.23
429	-10.92
430	-14.24
431	-18.67
432	-12.49
433	-10.3
434	-13.37
435	-12.11
436	-8.65
437	-11.78
438	-13.25
439	-5.06
440	-13.41
441	-8.14
442	-7.28
443	-9.07
444	-5.51
445	-1.99
446	0.53
447	7.91
448	22.03
449	24.4
450	27.83
451	43.23
452	59.27
453	82.59
454	104.67
455	122.89
456	158.21
457	179.72
458	201.24
459	201.45
460	219.72
461	235.61
462	235.96
463	228.14
464	213.77
465	196.33
466	183.7
467	173.91
468	152.2
469	129.73
470	123.12
471	109.59
472	87.83
473	78.29
474	63.55
475	55.88
476	60.35
477	46.95
478	46.07
479	38.74
480	32.95
481	34.37
482	34.72
483	36.02
484	30.39
485	27.37
486	31.81
487	27.37
488	22.06
489	31.38
490	12.79
491	24.26
492	16.77
493	15.83
494	10.72
495	8.66
496	8.91
497	5.65
498	4.55
499	0.24
500	9.59
501	-0.21
502	-5.23
503	-6.37
504	-4.13
505	-3.34
506	-5.23
507	0.39
508	-9.51
509	-2.34
510	-5.23
511	-13
512	-11.04
513	-6.84
514	-7.25
515	-8.33
516	-9.64
517	-9.44
518	-14.46
519	-4.94
520	-12.9
521	0.61
522	-15.08
523	-10.38
524	-7.94
525	-11.96
526	-21.56
527	-13.15
528	-5.31
529	-15.13
530	-10.91
531	-11.33
532	-2.58
533	-11.11
534	-16.2
535	-8.29
536	-13.3
537	-13.53
538	-14.29
539	-16.55
540	-13.79
541	-13.25
542	-15.31
543	1.05
544	-13.15
545	-13.73
546	-15.18
547	-7.01
548	-12.28
549	-12.76
550	-13.93
551	-8.61
552	-12.59
553	-11.32
554	-10.59
555	-14.39
556	-16
557	-11.32
558	-11.99
559	-9.95
560	-13.18
561	-15.19
562	-10.43
563	-13.34
564	-8.23
565	-14.89
566	-13.2
567	-12.98
568	-17.33
569	-18.04
570	-14.33
571	-12.61
572	-16.49
573	-15.92
574	-10.83
575	-11.24
576	-18.2
577	-12.27
578	-5.56
579	-9.01
580	-1.45
581	-10.31
582	-2.5
583	-6.12
584	-3.64
585	-2.69
586	-3.99
587	-3.43
588	3.07
589	3.63
590	0.48
591	3.27
592	8.16
593	14.35
594	21.84
595	27.84
596	32.44
597	42.15
598	50.17
599	67.52
600	76.99
601	82.85
602	100.66
603	116.15
604	129.88
605	153.34
606	168.22
607	195.51
608	198.81
609	230.91
610	244.29
611	244.13
612	264.08
613	276.23
614	312.17
615	294.85
616	291.01
617	293.97
618	290.11
619	292.7
620	282.96
621	284.51
622	268.42
623	267.41
624	263.27
625	253.46
626	249.75
627	244.48
628	230.56
629	233.5
630	209.46
631	215.91
632	204.77
633	195.18
634	186.89
635	188.6
636	161.9
637	164.39
638	156.4
639	152.57
640	139.41
641	125.6
642	123.25
643	110.53
644	103.49
645	92.46
646	93.17
647	85.77
648	77.14
649	81.78
650	68.01
651	67.49
652	60.84
653	52.78
654	48.05
655	51.83
656	48.83
657	36.96
658	33.96
659	31.09
660	31.8
661	34.74
662	22.98
663	26.07
664	20.79
665	16.79
666	20.46
667	27.5
668	15.93
669	13.56
670	7.11
671	11.95
672	8.01
673	6.72
674	10.99
675	4.5
676	11.98
677	5.63
678	4.9
679	2.87
680	6.41
681	1.14
682	0.03
683	-0.84
684	-0.39
685	-2.28
686	0.23
687	-3.18
688	4.64
689	0.73
690	26.33
691	-0.85
692	-4
693	-3.81
694	-6.47
695	-5.84
696	-6.06
697	-7.85
698	-2.97
699	-3.1
700	-7.26
701	-11.62
702	-8.14
703	-7.49
704	-12.87
705	-6.71
706	-10.1
707	-10.04
708	-6.77
709	-6.77
710	-8.58
711	-6.8
712	-10.4
713	-12.89
714	-15.98
715	-13.21
716	-18.1
717	-6.38
718	-9.3
719	-15.21
720	-10.24
721	-10.18
722	-9.32
723	-16.25
724	-15.01
725	-5.27
726	-12.3
727	-14.44
728	-17.19
729	-11.34
730	-13.47
731	-12.17
732	-14.88
733	-11.21
734	-18.29
735	-17.22
736	-16.42
737	252.73
738	-16.33
739	-12.22
740	-17.23
741	-18.18
742	-12.42
743	-10.73
744	-14.02
745	-14.93
746	-6.33
747	-12.13
748	-15.95
749	-13.76
750	-15.41
751	8.45
752	-15.97
753	-15.76
754	-18.55
755	-14.74
756	-16.55
757	-16.59
758	-13.25
759	-16.8
760	-14.59
761	-15.6
762	-15.6
763	-14.03
764	-10.89
765	-15.05
766	-12.28
767	-17.37
768	-14.23
769	-15.07
770	-11.41
771	-16.93
772	-15.12
773	-17.3
774	-10.79
775	-15.04
776	-10.02
777	-10.48
778	-15.14
779	-13.01
780	-14.04
781	-18.19
782	-12.39
783	-7.52
784	-12.27
785	-13.49
786	-14.06
787	-13.62
788	-14.86
789	-10.29
790	-17.06
791	-17.27
792	-17.28
793	-15.24
794	-12.26
795	-13.22
796	-15.52
797	-14.88
798	-13.62
799	-20.97
800	-13.87
801	-18.64
802	-13.73
803	-17.27
804	-16.76
805	-16.32
806	-15.48
807	-8.58
808	-20.03
809	-10.23
810	-16.96
811	-13.28
812	-14.11
813	-14.12
814	-13.49
815	-13.47
816	-16.71
817	-6.3
818	-17.29
819	-19.68
820	-16.49
821	-13.26
822	-14.47
823	-14.35
824	-19.37
825	-14.11
826	-11.66
827	-15.64
828	-9.18
829	-15.31
830	-19.39
831	-7.15
832	-12.96
833	-14.42
834	-14.81
835	-13.3
836	-15.01
837	-15.53
838	-14.46
839	-16.9
840	-17.26
841	-15.19
842	-15.11
843	-18.16
844	-14.42
845	-19.44
846	-14.33
847	-17.23
848	-11.86
849	-15.86
850	-14.82
851	-17.3
852	-12.21
853	-13.47
854	-13.79
855	-13.39
856	-11.15
857	-13.72
858	-17.53
859	-18.48
860	-14.84
861	-17.61
862	-12.32
863	-14.32
864	-13.12
865	-13.1
866	-15.44
867	-15.21
868	-11.21
869	-12.59
870	-13.44
871	-17.88
872	-15.32
873	-9.65
874	-15.08
875	-13.79
876	-14.18
877	-13.77
878	-18.66
879	-17.85
880	-9.47
881	-9.51
882	-13.86
883	-15.1
884	-14.93
885	-14.92
886	-13.39
887	-11.37
888	-11.25
889	-14.5
890	-17.95
891	-9.51
892	-17.23
893	-16.18
894	-14.75
895	-17.36
896	-9.56
897	-12.74
898	-17.53
899	62.75
900	-18.38
901	-15.92
902	-17.87
903	-15.28
904	-15.22
905	-12.06
906	-13.53
907	-15.23
908	-8.91
909	-10.41
910	-18.09
911	-13.57
912	-6.43
913	-17.31
914	-9.39
915	-18.54
916	-15.43
917	-15.2
918	-13
919	-17.9
920	-11.34
921	-15.24
922	-11.97
923	-12.72
924	-15.72
925	-18.04
926	-17.53
927	-15.99
928	-19.25
929	-17.78
930	-15.66
931	-15.26
932	-12.97
933	-16.11
934	-12.82
935	-13.76
936	-14.26
937	-15.61
938	-10.52
939	-20.02
940	-13.03
941	-9.23
942	-19.44
943	-16.72
944	-11.28
945	-18.03
946	-12.23
947	-16.91
948	-13.43
949	-12.7
950	-16.43
951	-16.18
952	-17.15
953	-12.67
954	-14.3
955	-15.38
956	-13.45
957	-11.24
958	-17.12
959	-14.14
960	-16.14
961	-14.65
962	-10.24
963	-12.51
964	-8.77
965	-16.89
966	-16.88
967	-13.5
968	-13.02
969	-15.97
970	-12.73
971	-18.86
972	-15.03
973	-17.33
974	-17.22
975	-16.51
976	-16.8
977	-11.44
978	-18.31
979	-17.83
980	-19.69
981	-17.93
982	-16.94
983	-5.18
984	-15.93
985	0.49
986	-16.05
987	-14.83
988	-6.76
989	-14.61
990	-14.74
991	-12.5
992	-15.49
993	-19.53
994	-16.53
995	-14.76
996	-16.21
997	-16.66
998	-17.06
999	-17.86
1000	-14.35
