Data from Cyan_Screen_USB2G573481__0__10-17-38-709.txt Node

Date: Wed Mar 26 10:17:38 EDT 2025
User: adrie
Spectrometer: USB2G57348
Scans to average: 1
Trigger mode: 4
Integration Time (sec): 1.000000E0
Electric dark correction enabled: true
Boxcar width: 0
XAxis mode: Wavelengths
Number of Pixels in Spectrum: 651
>>>>>Begin Spectral Data<<<<<
350	53.25
351	-12.54
352	-14.31
353	-13.86
354	-12.54
355	-12.83
356	-14.07
357	-13.63
358	-13.94
359	-8.99
360	-13.72
361	-9.77
362	-13.38
363	-8.41
364	-14.91
365	-12.24
366	-8.62
367	-14.71
368	-10.47
369	-6.11
370	-10.81
371	-3.37
372	-13.83
373	-12.68
374	-14
375	-11.76
376	-10.94
377	-12.92
378	-13.28
379	-6.02
380	-15.41
381	-11.09
382	-11.43
383	-11.9
384	-8.81
385	2.4
386	-9.5
387	-7.83
388	-9.78
389	-10.66
390	-7.67
391	-11.9
392	-11.9
393	-14.86
394	-5.05
395	-10.66
396	-9.66
397	-2.34
398	-12.04
399	-11.81
400	-4.96
401	-11.96
402	-7.18
403	-11.98
404	-8.42
405	-11.8
406	-15.55
407	-9.38
408	-1.88
409	-10.16
410	-10.49
411	-11.88
412	-2.11
413	7.46
414	-7.11
415	-10.75
416	-10.47
417	-9.87
418	-11.44
419	-13.11
420	-10.92
421	-4.96
422	-10.49
423	-9.36
424	-7.84
425	-4.83
426	-6.13
427	-5.91
428	-11.74
429	-7.9
430	-11.87
431	-13.09
432	-6.33
433	-9.19
434	-6.72
435	-9.23
436	-5.46
437	-7.98
438	-7.23
439	3.61
440	-4.03
441	1.63
442	12.23
443	14.2
444	20.24
445	34.91
446	46.62
447	77.23
448	115.54
449	152.36
450	221.33
451	272.29
452	348.47
453	432.73
454	519.77
455	632.06
456	745.98
457	856.71
458	938.81
459	1000.87
460	1080.49
461	1112.93
462	1107.88
463	1104.62
464	1053.25
465	993.28
466	922.58
467	847.77
468	736.52
469	670.08
470	597.57
471	531.18
472	471.79
473	412.92
474	365.74
475	338.31
476	306.36
477	271.29
478	256.84
479	238.39
480	228.73
481	209.45
482	212.1
483	200.22
484	187.19
485	188.4
486	177.06
487	172.1
488	173.79
489	162.83
490	147.26
491	146.27
492	131.37
493	131.17
494	116.15
495	112.79
496	109.17
497	105.21
498	104.06
499	95.22
500	120.58
501	115.48
502	120.71
503	141.74
504	159.68
505	191.45
506	233.52
507	280.22
508	335.08
509	411.18
510	482.17
511	546.48
512	639.75
513	746.72
514	850.27
515	970.83
516	1074.31
517	1210.39
518	1339.67
519	1481.21
520	1630.33
521	1814.81
522	1944.53
523	2071.1
524	2214.81
525	2284.07
526	2358.89
527	2432.09
528	2433.75
529	2437.72
530	2413.8
531	2336.62
532	2259.52
533	2164.15
534	2030.12
535	1900.35
536	1756.76
537	1628.33
538	1488.64
539	1363.62
540	1225.73
541	1134.74
542	1039.79
543	974.08
544	899.16
545	826.17
546	777.37
547	745.86
548	703.92
549	682.44
550	658.72
551	634.93
552	626.85
553	608.37
554	586.54
555	572.67
556	546.77
557	543.47
558	524.74
559	495.49
560	491.72
561	463.78
562	462.86
563	432.42
564	422.35
565	390.35
566	379.25
567	355.7
568	327.87
569	299.08
570	288.1
571	267.39
572	232.15
573	222.74
574	206.39
575	192.84
576	167.1
577	159.23
578	149.51
579	130.08
580	131.19
581	107.2
582	106.91
583	87.25
584	86.66
585	81.75
586	73.45
587	61.34
588	68.22
589	60.92
590	47.15
591	52.11
592	48.01
593	45.99
594	38.95
595	40.53
596	41.65
597	35.74
598	36
599	35.67
600	37.31
601	29.48
602	27.08
603	34.24
604	29.38
605	25.44
606	23.73
607	31.08
608	18.15
609	18.94
610	16.82
611	16.14
612	13.79
613	9.34
614	125.93
615	16.11
616	11.51
617	5.26
618	6.49
619	13.26
620	5.64
621	3.63
622	0.36
623	-0.79
624	-3.05
625	-4.47
626	-0.76
627	-6.78
628	-4.07
629	-1.15
630	-4.64
631	-7.97
632	-7.41
633	-0.83
634	-7.26
635	1.3
636	-7.8
637	-10.77
638	-8.15
639	-11.86
640	-4.97
641	-7.13
642	-5.99
643	-7.86
644	-10.51
645	-10.46
646	-10.59
647	-13.28
648	-14.91
649	-8.81
650	-8.39
651	-10.97
652	-10.68
653	-8.28
654	-13.98
655	-9.56
656	-8.68
657	-10.92
658	-11.04
659	-16.61
660	-11.82
661	-8.56
662	-12.77
663	-12.22
664	-14.19
665	-11.89
666	-13.25
667	-9.22
668	-12.08
669	-10.23
670	-13.5
671	-9.82
672	-13.86
673	-10.75
674	-9.68
675	-16.08
676	-10.21
677	-10.62
678	-11.56
679	-11.96
680	-8.7
681	-13.97
682	-15.49
683	-12.54
684	-11.8
685	-12.23
686	-10.53
687	-12.77
688	-6.95
689	-14.83
690	19.68
691	-13.28
692	-14.72
693	-13.02
694	-12.48
695	-15.84
696	-15.14
697	-14.1
698	-12.05
699	-13.05
700	-11.71
701	-15.86
702	-12.54
703	-13.79
704	-14.01
705	-11.83
706	-15.85
707	-14.44
708	-12.41
709	-13.42
710	-14.99
711	-13.89
712	-17.45
713	-11.81
714	-15.43
715	-13.72
716	-12.73
717	-10.79
718	-11.85
719	-17.78
720	-12.85
721	-10.8
722	-11.84
723	-15.84
724	-11.7
725	-1.87
726	-12.78
727	-14.9
728	-15.82
729	-10.95
730	-11.98
731	-12.86
732	-14.66
733	-14.75
734	-14.84
735	-13.91
736	-14
737	168.13
738	-18.89
739	-13.8
740	-11.8
741	-18.84
742	-11.22
743	-13.54
744	-14.39
745	-13.24
746	-6.32
747	-16.71
748	-19.49
749	-13.35
750	-15.68
751	10.64
752	-12.44
753	-15.32
754	-14.45
755	-12.69
756	-12.27
757	-14.24
758	-12.3
759	-11.5
760	-15.54
761	-11.79
762	-17.07
763	-12.1
764	-16.22
765	-14.68
766	-8.98
767	-14.89
768	-10.84
769	-12.92
770	-8.42
771	-16.98
772	-11.6
773	-15.02
774	-11.27
775	-10.04
776	-10.01
777	-7.95
778	-14.45
779	-14.02
780	-14.85
781	-16.12
782	-13.38
783	-3.19
784	-13.91
785	-14.17
786	-16.58
787	-11.65
788	-15.57
789	-12.73
790	-11.65
791	-13.98
792	-15.02
793	-13.29
794	-13.91
795	-12.81
796	-18.02
797	-9.99
798	-13.69
799	-14.85
800	-13.99
801	-15.29
802	-13.08
803	-15.03
804	-17.35
805	-12.91
806	-12.24
807	-11.27
808	-16.25
809	-9.1
810	-14.9
811	-13.93
812	-19.24
813	-11.75
814	-13.11
815	-15.89
816	-14.93
817	-9.29
818	-12.97
819	-21.95
820	-12.76
821	-10.87
822	-13.17
823	-13.16
824	-14.46
825	-11.51
826	-12.14
827	-12.78
828	-11.84
829	-15.25
830	-14.53
831	-10.04
832	-15.4
833	-11.69
834	-18.01
835	-11.9
836	-13.81
837	-11.12
838	-12.29
839	-11.4
840	-12.95
841	-15.85
842	-12.72
843	-14.8
844	-15.81
845	-17.48
846	-12.86
847	-15.79
848	-7.45
849	-17.11
850	-12.85
851	-16.64
852	-10.83
853	-18.24
854	-13.34
855	-10.54
856	-10.38
857	-12.69
858	-15.99
859	-16.38
860	-11.68
861	-14.59
862	-13
863	-8.37
864	-13.89
865	-12.38
866	-12.48
867	-13.85
868	-10.32
869	-14.58
870	-10.62
871	-18.12
872	-16
873	-15.37
874	-14.2
875	-15.87
876	-13.77
877	-14.8
878	-17.77
879	-15.62
880	-11.02
881	-9.29
882	-13.28
883	-13.61
884	-14.87
885	-15.58
886	-10.69
887	-12.65
888	-13.17
889	-16.68
890	-13.76
891	-9.18
892	-19.11
893	-17.74
894	-13.67
895	-16.87
896	-9.1
897	-13.45
898	-15.62
899	57.89
900	-16.99
901	-16.53
902	-15
903	-11.6
904	-14.44
905	-13.55
906	-12.18
907	-12.82
908	-9.55
909	-9.57
910	-16.97
911	-14.61
912	-5.86
913	-15.53
914	-9.15
915	-15.41
916	-14.56
917	-12.84
918	-13.57
919	-17.01
920	-9.85
921	-11.84
922	-13.3
923	-14.35
924	-14.72
925	-12.94
926	-14.68
927	-15.86
928	-18.75
929	-14.47
930	-9.54
931	-14.09
932	-13.75
933	-16.92
934	-15.72
935	-14.57
936	-12.9
937	-13.42
938	-11.79
939	-11.76
940	-12.7
941	-7.84
942	-13.21
943	-12.12
944	-12.94
945	-14.41
946	-13.66
947	-14.53
948	-12.54
949	-14.79
950	-17.55
951	-17.8
952	-13.84
953	-10.3
954	-12.82
955	-13.77
956	-14.66
957	-13.86
958	-16.32
959	-16.68
960	-16.87
961	-15.93
962	-14.83
963	-12.56
964	-9.22
965	-15.97
966	-15.81
967	-10.96
968	-14.86
969	-14.89
970	-12.68
971	-17.42
972	-14.64
973	-18.3
974	-15.9
975	-15.32
976	-12.9
977	-11.22
978	-14.31
979	-16.85
980	-16.5
981	-17.02
982	-14.62
983	-9.82
984	-15.72
985	-2.24
986	-15.59
987	-16.56
988	-8.17
989	-8.17
990	-13
991	-12.51
992	-15.34
993	-14.53
994	-15.96
995	-10.23
996	-17.25
997	-15.46
998	-14.9
999	-14.45
1000	-13.04
