Data from Yellow_Screen_USB2G573481__0__10-16-24-992.txt Node

Date: Wed Mar 26 10:16:24 EDT 2025
User: adrie
Spectrometer: USB2G57348
Scans to average: 1
Trigger mode: 4
Integration Time (sec): 1.000000E0
Electric dark correction enabled: true
Boxcar width: 0
XAxis mode: Wavelengths
Number of Pixels in Spectrum: 651
>>>>>Begin Spectral Data<<<<<
350	51.74
351	-11.37
352	-15.31
353	-9.61
354	-15.45
355	-11.97
356	-13.96
357	-14.99
358	-13.7
359	-12.25
360	-15.04
361	-11.38
362	-13.28
363	-10.92
364	-12.81
365	-13.91
366	-10.27
367	-16.68
368	-10.22
369	-11.17
370	-12.8
371	-4.62
372	-12.39
373	-12.95
374	-13.09
375	-8.55
376	-11.13
377	-16.95
378	-13.78
379	-8.42
380	-16.24
381	-14.77
382	-15.41
383	-12.63
384	-8.59
385	1.04
386	-10.46
387	-10.62
388	-13.79
389	-15.58
390	-12.61
391	-14.85
392	-16.84
393	-15.55
394	-12.57
395	-13.89
396	-8.59
397	-6.24
398	-14.02
399	-11.75
400	-4.49
401	-9.69
402	-8.62
403	-12.44
404	-10.41
405	-12.7
406	-15.28
407	-11.07
408	-4.7
409	-13.81
410	-13.3
411	-10.65
412	-2.25
413	5.77
414	-9.76
415	-12.18
416	-11.33
417	-9.41
418	-13.89
419	-12.46
420	-14.24
421	-5.75
422	-13.03
423	-11.25
424	-10.16
425	-9.35
426	-8.16
427	-12.55
428	-16.43
429	-11.28
430	-18.62
431	-19.23
432	-10.31
433	-11.14
434	-10.63
435	-8.48
436	-11.32
437	-13.57
438	-13.94
439	-7.81
440	-14.67
441	-7.85
442	-5.78
443	-15.41
444	-10.16
445	-11.57
446	-10.81
447	-12.76
448	-2.32
449	-9.06
450	-14.59
451	-12.74
452	-11.32
453	-7.44
454	-14.16
455	-10.36
456	-2.82
457	-9.59
458	-9.04
459	-12.64
460	-13.58
461	-6.83
462	-13.28
463	-11.4
464	-10.59
465	-10.81
466	-5.48
467	-8.59
468	-9.54
469	-11.41
470	-10.05
471	-7.4
472	-10.94
473	-10.8
474	-11.79
475	-13.59
476	-8.18
477	-11.37
478	-10.04
479	-11.65
480	-7.25
481	-11.03
482	-9.57
483	-10.58
484	-11.49
485	-10.12
486	-10.51
487	-7.61
488	-5.04
489	0.27
490	-4.62
491	1.7
492	-0.28
493	-2.66
494	7.37
495	7
496	12.7
497	17.32
498	30.15
499	32.9
500	46.26
501	53.89
502	67.82
503	86.32
504	118.2
505	151.49
506	184.62
507	240.8
508	309.74
509	378.92
510	448.41
511	532.68
512	630.36
513	725.89
514	844.8
515	954.53
516	1075.12
517	1214.07
518	1334
519	1475.49
520	1615.16
521	1767.93
522	1892.27
523	2031.27
524	2146.42
525	2240.71
526	2330.02
527	2370.26
528	2403.28
529	2434.67
530	2428.94
531	2332.07
532	2258.39
533	2157.12
534	2018.53
535	1921.68
536	1784.11
537	1639.36
538	1506.49
539	1390.5
540	1241.64
541	1169
542	1064.6
543	1002.11
544	893.28
545	842.45
546	784.43
547	744.92
548	700.88
549	669.97
550	650.65
551	651.43
552	602.74
553	591.36
554	579.16
555	564.76
556	547.83
557	533.22
558	515.21
559	496.67
560	486.25
561	466.94
562	448.18
563	436.91
564	421
565	389.7
566	378.51
567	361.07
568	336.4
569	304.89
570	294.48
571	278.88
572	241.98
573	222.96
574	217.61
575	192.5
576	180.55
577	169.32
578	162.81
579	152.17
580	152.95
581	137.38
582	126.68
583	116.84
584	112.9
585	118.81
586	121.39
587	120.49
588	126.5
589	134.11
590	136.08
591	149.5
592	169.37
593	194.56
594	227.33
595	255.39
596	286.79
597	327.71
598	381.97
599	426.19
600	482.09
601	546.75
602	618.22
603	693.61
604	802.17
605	884.26
606	989.48
607	1084.23
608	1164.51
609	1242.93
610	1333.95
611	1401.38
612	1466.6
613	1525.29
614	1661.18
615	1574.5
616	1591.07
617	1614.02
618	1607.12
619	1614.12
620	1580.39
621	1548.81
622	1512.15
623	1476.76
624	1433.6
625	1372.89
626	1347.1
627	1300.16
628	1255.01
629	1217.07
630	1156.36
631	1137.19
632	1068.69
633	1020.62
634	986.4
635	959.96
636	897.09
637	859.71
638	819.39
639	769.7
640	724.1
641	689.52
642	667.84
643	617.5
644	579.65
645	536.5
646	532.89
647	487.64
648	452.67
649	447.36
650	400.79
651	381.71
652	361.57
653	339.61
654	305.21
655	303.34
656	285.38
657	252
658	230.91
659	214.04
660	217.51
661	208.75
662	194.08
663	178.79
664	168.12
665	151.17
666	143.4
667	141.32
668	130.72
669	125.25
670	114.55
671	109.19
672	96.3
673	87.32
674	96.67
675	86.8
676	85.3
677	70.58
678	69.67
679	71.86
680	67.29
681	55.52
682	57.98
683	53.18
684	55.16
685	46.94
686	41.39
687	36.37
688	53.14
689	38.35
690	74.56
691	38.72
692	34.25
693	30.51
694	33.09
695	31.13
696	24.27
697	21.64
698	19.54
699	17.88
700	21.63
701	12.64
702	15.7
703	14.24
704	15.71
705	7.29
706	11.06
707	5.52
708	6.69
709	4.27
710	4.63
711	3.94
712	2.83
713	1.49
714	1.53
715	-1.69
716	-4.46
717	4.22
718	-0.69
719	-6.63
720	-5.62
721	-4.57
722	-5.63
723	-11.61
724	-6.68
725	3.05
726	-8.52
727	-9.79
728	-13.63
729	-11.61
730	-8.68
731	-7.46
732	-9.28
733	-7.45
734	-9.66
735	-10.63
736	-12.82
737	171.35
738	-13.66
739	-10.58
740	-12.48
741	-15.72
742	-9.84
743	-12.2
744	-10.42
745	-12.7
746	-3.85
747	-14.7
748	-10.87
749	-15.32
750	-12.2
751	4.68
752	-11.43
753	-13.44
754	-14.15
755	-12.79
756	-14.24
757	-14.66
758	-12.46
759	-9.97
760	-13.32
761	-13.36
762	-16.19
763	-17.28
764	-15.77
765	-13.28
766	-12.65
767	-16.93
768	-9.6
769	-13.57
770	-8.26
771	-15.42
772	-15.41
773	-17.84
774	-9.24
775	-13.04
776	-8.19
777	-10.34
778	-14.63
779	-14.16
780	-16.23
781	-18
782	-12.06
783	-3.76
784	-15.72
785	-14.9
786	-17.24
787	-12.48
788	-14.09
789	-11.41
790	-15.35
791	-16.69
792	-15.78
793	-18.01
794	-13.74
795	-16.6
796	-17.05
797	-12.66
798	-15.25
799	-16.05
800	-16.61
801	-16.51
802	-14.38
803	-17.22
804	-14.36
805	-16.81
806	-14.62
807	-14.23
808	-20.01
809	-11.54
810	-15.66
811	-14.41
812	-17.65
813	-14.48
814	-12.93
815	-16.33
816	-17.33
817	-12.46
818	-17.85
819	-18.07
820	-14.77
821	-12.64
822	-16.88
823	-17.07
824	-17.32
825	-14.66
826	-10.96
827	-12.85
828	-12.55
829	-17.15
830	-18.27
831	-7.71
832	-11.46
833	-15.24
834	-15.92
835	-14.57
836	-13.8
837	-18.39
838	-11.76
839	-17.92
840	-20.13
841	-18.66
842	-15.53
843	-17.55
844	-18.64
845	-18.34
846	-9.78
847	-19.7
848	-11.41
849	-16.56
850	-13.91
851	-19.65
852	-13.59
853	-15.48
854	-16.41
855	-11.72
856	-8.59
857	-15.19
858	-15.86
859	-13.97
860	-10.25
861	-14.82
862	-11.64
863	-12.47
864	-12.96
865	-14.88
866	-16.06
867	-16.57
868	-11.08
869	-16.23
870	-13.35
871	-16.42
872	-13.78
873	-11.73
874	-15.41
875	-13.39
876	-11.64
877	-15.11
878	-16.1
879	-16.07
880	-9.97
881	-9.23
882	-12.93
883	-16.01
884	-17.6
885	-18.4
886	-14.12
887	-11.63
888	-15.06
889	-15.74
890	-18.06
891	-8.27
892	-17.74
893	-16.68
894	-16.64
895	-15.41
896	-9.98
897	-17.38
898	-16.45
899	58.3
900	-17.72
901	-15.24
902	-17.57
903	-16.71
904	-16.38
905	-15.78
906	-12.86
907	-16.57
908	-10.77
909	-13.16
910	-16.45
911	-14.31
912	-7.31
913	-15.88
914	-12.7
915	-14
916	-18.07
917	-15.61
918	-13.56
919	-13.86
920	-10.55
921	-18.46
922	-15.56
923	-15.01
924	-16.66
925	-16.05
926	-16.37
927	-16.86
928	-19.81
929	-13.21
930	-14.73
931	-16.71
932	-16.94
933	-16.93
934	-17.95
935	-15.52
936	-14.34
937	-17.14
938	-10.02
939	-16.86
940	-14.25
941	-9.61
942	-18.28
943	-15.8
944	-14.65
945	-15.65
946	-16.65
947	-18.02
948	-13.65
949	-14.74
950	-14.2
951	-17.39
952	-15.52
953	-12.14
954	-18.18
955	-19.04
956	-16.29
957	-13.62
958	-18.77
959	-13.37
960	-16.62
961	-17.57
962	-15.59
963	-10.66
964	-5.91
965	-18.68
966	-17.49
967	-14.81
968	-14.23
969	-17.46
970	-11.54
971	-16.14
972	-16.6
973	-16.88
974	-16.65
975	-18.66
976	-16.51
977	-15.64
978	-18.49
979	-16.38
980	-19.22
981	-15.93
982	-13.55
983	-6.56
984	-18.66
985	-4.87
986	-14.65
987	-15.18
988	-9.34
989	-16.67
990	-19.04
991	-13.49
992	-15.35
993	-18.68
994	-17.69
995	-13.44
996	-13.46
997	-14.83
998	-17.5
999	-15.84
1000	-12.71
