Data from 128, 0, 0_Screen_USB2G573481__0__10-19-02-665.txt Node

Date: Wed Mar 26 10:19:02 EDT 2025
User: adrie
Spectrometer: USB2G57348
Scans to average: 1
Trigger mode: 4
Integration Time (sec): 1.000000E0
Electric dark correction enabled: true
Boxcar width: 0
XAxis mode: Wavelengths
Number of Pixels in Spectrum: 651
>>>>>Begin Spectral Data<<<<<
350	49.87
351	-12.62
352	-15.89
353	-7.73
354	-13.64
355	-12.61
356	-15.16
357	-15.75
358	-17.14
359	-11.65
360	-19.27
361	-13.94
362	-16.09
363	-6.09
364	-17.83
365	-14.2
366	-8.85
367	-17.72
368	-14.07
369	-11.82
370	-10.65
371	-8.2
372	-17.89
373	-13.32
374	-13.17
375	-12.75
376	-13.58
377	-16.09
378	-14.05
379	-11.37
380	-15.94
381	-12.78
382	-13.55
383	-11.45
384	-12.71
385	-0.4
386	-11.07
387	-10.76
388	-16.04
389	-20.62
390	-12.55
391	-13.76
392	-10.36
393	-15.78
394	-12.93
395	-16.77
396	-12.46
397	-4.63
398	-12.43
399	-13.77
400	-9.08
401	-14.57
402	-5.81
403	-14.79
404	-10.23
405	-11.85
406	-13.74
407	-10.86
408	-5.77
409	-17.15
410	-13.98
411	-12.72
412	-2.89
413	3.93
414	-5.85
415	-13.53
416	-12.85
417	-11.8
418	-12.33
419	-15.13
420	-17.76
421	-8.59
422	-12.69
423	-12.01
424	-10.8
425	-9.17
426	-11.54
427	-13.57
428	-17.52
429	-16.81
430	-13.73
431	-18.44
432	-13.78
433	-15.83
434	-10.67
435	-13.22
436	-7.6
437	-13.38
438	-14.16
439	-10.22
440	-15.76
441	-10.26
442	-11.11
443	-13.81
444	-14.54
445	-13.21
446	-15.99
447	-14.88
448	-4.66
449	-12.69
450	-15.72
451	-13.57
452	-11.78
453	-10.53
454	-15.47
455	-12.6
456	-7.71
457	-13.65
458	-10.57
459	-13.59
460	-17.71
461	-11.31
462	-13.4
463	-13.16
464	-13.7
465	-18.49
466	-12.62
467	-8.09
468	-9.97
469	-16.17
470	-11.04
471	-9.77
472	-13.06
473	-14.8
474	-17.77
475	-15.77
476	-7.77
477	-15.33
478	-11.05
479	-15.78
480	-13.06
481	-12.47
482	-13.38
483	-14.88
484	-10.63
485	-14.42
486	-15.75
487	-14.6
488	-14.93
489	-7.43
490	-15.69
491	-13
492	-13.62
493	-9.37
494	-15.75
495	-14.38
496	-14
497	-12.29
498	-8.82
499	-16.4
500	-13.73
501	-12.32
502	-15.62
503	-15.2
504	-10.37
505	-14.8
506	-13.68
507	-10.28
508	-14.28
509	-8.48
510	-14.71
511	-12.14
512	-16.79
513	-12.8
514	-13.66
515	-11.95
516	-19.18
517	-16.95
518	-18.59
519	-8.23
520	-17.94
521	0.26
522	-17.01
523	-11.71
524	-10.86
525	-10.88
526	-15.08
527	-15.48
528	-8.85
529	-18.3
530	-13.62
531	-14.68
532	-5.24
533	-15.57
534	-12.38
535	-12.67
536	-10.73
537	-14
538	-13.21
539	-13.69
540	-18.46
541	-11.75
542	-16.54
543	-0.76
544	-12.89
545	-18.29
546	-15.42
547	-9.77
548	-9.07
549	-15.81
550	-13.99
551	-13.22
552	-17.74
553	-11.58
554	-11.33
555	-11.77
556	-16.69
557	-16.06
558	-8.72
559	-15.82
560	-14.91
561	-14.74
562	-10
563	-13.76
564	-9.8
565	-13.66
566	-14.67
567	-11.08
568	-17.11
569	-15.89
570	-14.84
571	-13.11
572	-18.11
573	-15.31
574	-11.8
575	-14.58
576	-13.96
577	-9.72
578	-13.62
579	-12.5
580	-0.62
581	-9.97
582	-6.12
583	-7.44
584	-10.02
585	1.52
586	-1.24
587	-5.66
588	4.18
589	1.66
590	-0.87
591	5.66
592	15.74
593	16.13
594	20.99
595	29.29
596	32.93
597	44.45
598	51.65
599	68.78
600	82.87
601	84.76
602	110.21
603	125.83
604	140.02
605	160.6
606	177.28
607	207.75
608	205.32
609	225.78
610	248.52
611	263.25
612	279.68
613	286.32
614	405.73
615	305.35
616	301.23
617	298.27
618	290.21
619	297.28
620	293.78
621	289.41
622	284.35
623	276.47
624	266.33
625	267.88
626	258.13
627	250.62
628	248.19
629	240.45
630	221.97
631	216.39
632	217.6
633	209.65
634	190.93
635	202.69
636	176.79
637	160.24
638	153.09
639	145.78
640	139.37
641	134.41
642	119.46
643	110.41
644	105.69
645	97.72
646	95.36
647	87.46
648	79.05
649	86.31
650	67.94
651	64.77
652	64.4
653	54.47
654	49.29
655	51.56
656	47.05
657	33.58
658	34.27
659	26.86
660	33.26
661	32.73
662	27.53
663	23.84
664	22.72
665	15.4
666	14.75
667	17.19
668	13.27
669	14.18
670	8.12
671	11.92
672	6.17
673	6.38
674	4.87
675	3.95
676	13
677	9.71
678	3.45
679	5.72
680	8.97
681	-2.65
682	-0.93
683	-1.69
684	-0.4
685	-1.21
686	-2.4
687	-5.88
688	4.22
689	-3.77
690	29.43
691	-3.67
692	0.48
693	-1.56
694	-4.43
695	-6.53
696	-7.8
697	-11.46
698	-4.18
699	-8.73
700	-7.77
701	-11.38
702	-8.22
703	-9.33
704	-7.19
705	-6.26
706	-9.91
707	-11.95
708	-9.87
709	-12.53
710	-12.75
711	-12.52
712	-9.04
713	-13.56
714	-15.35
715	-14.48
716	-13.79
717	-4.78
718	-11.72
719	-12.75
720	-16.72
721	-9.67
722	-12.69
723	-9.6
724	-9.64
725	-0.62
726	-11.83
727	-14.82
728	-15.74
729	-14.88
730	-14.99
731	-14.73
732	-11.43
733	-14.77
734	-14.71
735	-13.73
736	-15.82
737	75.25
738	-18.73
739	-14.69
740	-17.62
741	-17.71
742	-13.1
743	-11.37
744	-15.72
745	-17.53
746	-6.24
747	-14.77
748	-15.96
749	-17.4
750	-12.51
751	7.39
752	-16.61
753	-12.35
754	-17.96
755	-11.89
756	-16.39
757	-12.37
758	-12.43
759	-13.37
760	-15.37
761	-14.19
762	-12.69
763	-13.79
764	-14.98
765	-16.89
766	-10.6
767	-18.8
768	-12.71
769	-14.72
770	-12.03
771	-17.8
772	-10.84
773	-18.08
774	-15.03
775	-15.88
776	-8.25
777	-14.22
778	-15.86
779	-13.03
780	-16.13
781	-16.17
782	-11.64
783	-4.05
784	-10.85
785	-12.71
786	-17.46
787	-11.24
788	-13.9
789	-8.68
790	-13.77
791	-16.98
792	-19.62
793	-12.16
794	-13.76
795	-14.71
796	-16.58
797	-17.99
798	-15.77
799	-13.74
800	-16.02
801	-16.76
802	-11.68
803	-18.45
804	-16.63
805	-14.79
806	-18.07
807	-15.13
808	-16.75
809	-10.5
810	-15.25
811	-14.47
812	-18.15
813	-15.57
814	-12.78
815	-15.64
816	-16.91
817	-9.44
818	-13.51
819	-18.31
820	-15.56
821	-16.68
822	-19.83
823	-14.44
824	-14.63
825	-12.23
826	-11.26
827	-14.76
828	-8.7
829	-18.17
830	-15.87
831	-11.72
832	-17.08
833	-17.66
834	-16.13
835	-11.54
836	-13.14
837	-16.46
838	-13.17
839	-12.26
840	-14.05
841	-16.67
842	-19.12
843	-16.9
844	-17.78
845	-19.21
846	-13.74
847	-14.75
848	-14.93
849	-14.04
850	-10.17
851	-18.64
852	-13.64
853	-14.36
854	-13.71
855	-11.39
856	-13.59
857	-16.23
858	-15.95
859	-17.21
860	-13.98
861	-15.57
862	-12.99
863	-14.09
864	-13.12
865	-14.25
866	-17.2
867	-17.73
868	-12
869	-12.99
870	-13.36
871	-16.06
872	-14.76
873	-13.97
874	-17.22
875	-11.06
876	-14.67
877	-17.37
878	-16.76
879	-17.09
880	-14.91
881	-11.27
882	-13.94
883	-14.4
884	-16.57
885	-15.09
886	-12.86
887	-9.97
888	-12.34
889	-16.74
890	-19.18
891	-9.61
892	-19.88
893	-15.86
894	-17.09
895	-15.1
896	-6.92
897	-16.23
898	-15.59
899	60.23
900	-15.89
901	-19.31
902	-15.3
903	-11.82
904	-15.67
905	-14.55
906	-12.09
907	-10.71
908	-11.25
909	-12.35
910	-14.76
911	-13.71
912	-3.49
913	-16.13
914	-10.72
915	-18.24
916	-15.57
917	-17.7
918	-16.06
919	-15.65
920	-15.86
921	-16.71
922	-13.65
923	-15.61
924	-18.06
925	-14.25
926	-16.58
927	-17.28
928	-19.92
929	-13.39
930	-14.15
931	-17.01
932	-14.42
933	-17.77
934	-15.44
935	-16.84
936	-14.02
937	-17.24
938	-10.96
939	-16.26
940	-14.93
941	-10.7
942	-16.73
943	-15.24
944	-13.59
945	-15.42
946	-12.35
947	-19.17
948	-15
949	-13.82
950	-17.35
951	-19.4
952	-17.75
953	-11.36
954	-15.08
955	-15.6
956	-13.62
957	-17.72
958	-18.12
959	-15.69
960	-17.07
961	-18.72
962	-14.71
963	-11.16
964	-10.6
965	-14.06
966	-19.14
967	-11.88
968	-17.67
969	-18.03
970	-13.09
971	-16.79
972	-14.65
973	-16.02
974	-15.7
975	-18.08
976	-15.67
977	-15.85
978	-14.71
979	-18.53
980	-15.24
981	-17.89
982	-15.4
983	-6.65
984	-18.47
985	0.84
986	-13.55
987	-15.45
988	-8.17
989	-13.25
990	-15.08
991	-10.2
992	-18.28
993	-17.16
994	-15.58
995	-15.78
996	-15.58
997	-17
998	-16.73
999	-16.65
1000	-12.05
