Data from Pink_Screen_USB2G573481__0__10-17-03-898.txt Node

Date: Wed Mar 26 10:17:03 EDT 2025
User: adrie
Spectrometer: USB2G57348
Scans to average: 1
Trigger mode: 4
Integration Time (sec): 1.000000E0
Electric dark correction enabled: true
Boxcar width: 0
XAxis mode: Wavelengths
Number of Pixels in Spectrum: 651
>>>>>Begin Spectral Data<<<<<
350	59.54
351	-14.53
352	-18.18
353	-13.43
354	-13.41
355	-20.37
356	-15.84
357	-14.65
358	-16.61
359	-15.57
360	-18.09
361	-16.62
362	-18.57
363	-12.06
364	-16.48
365	-17.04
366	-12.9
367	-18.33
368	-18.64
369	-12.7
370	-12.1
371	-8.7
372	-18.49
373	-14.03
374	-16.35
375	-17.89
376	-13.44
377	-16.25
378	-18.64
379	-10.56
380	-17.42
381	-14.41
382	-17.38
383	-17.38
384	-11.4
385	-1.83
386	-11.88
387	-14.42
388	-18.3
389	-13.57
390	-17.36
391	-19.83
392	-14.71
393	-15.43
394	-14.02
395	-17.26
396	-11.47
397	-7.57
398	-16.21
399	-16.61
400	-8.41
401	-11.33
402	-9.55
403	-17.25
404	-13.74
405	-14.52
406	-14.86
407	-15.26
408	-8.48
409	-9.89
410	-15.56
411	-13.49
412	-4.24
413	0.58
414	-14.59
415	-15.57
416	-13.81
417	-11.51
418	-16.27
419	-16
420	-13.89
421	-6.79
422	-15.26
423	-13.17
424	-10.85
425	-9.6
426	-7.65
427	-9.24
428	-14.33
429	-14.33
430	-16.44
431	-14.89
432	-12.49
433	-13
434	-14.29
435	-13.97
436	-9.85
437	-10.81
438	-8.62
439	-0.89
440	-8.6
441	-3.29
442	2.98
443	8.87
444	16.99
445	28.81
446	51.03
447	72.99
448	108.34
449	151.22
450	210.67
451	274.13
452	343.43
453	436.04
454	539.67
455	642.36
456	764.16
457	869.35
458	952.2
459	1020.17
460	1083.06
461	1108.66
462	1082.36
463	1057.87
464	1002.66
465	934.3
466	860.46
467	795.41
468	719.79
469	630.47
470	573.29
471	508.55
472	441.02
473	399.91
474	343.37
475	304.83
476	293.32
477	263.2
478	252.21
479	226.43
480	208.52
481	194.32
482	185.51
483	193.23
484	184.4
485	166.62
486	158.32
487	153.99
488	146.96
489	140.1
490	123.6
491	117.67
492	109.24
493	102.39
494	89.59
495	83.08
496	71.97
497	64.83
498	61.78
499	49.4
500	50.84
501	38.84
502	29.65
503	25.56
504	27.4
505	16.82
506	18.65
507	13.73
508	12.43
509	22.14
510	5.58
511	6.68
512	2.12
513	0.02
514	1.43
515	6.52
516	-3.57
517	-4.39
518	-4.52
519	2.23
520	-7.86
521	10.79
522	-8.95
523	-6.45
524	-3.55
525	-4.99
526	-9.54
527	-11.29
528	-5.62
529	-8.68
530	-10.27
531	-8.27
532	-2.55
533	-10.03
534	-11.38
535	-6.97
536	-10.41
537	-9.76
538	-13.09
539	-10.93
540	-12.13
541	-8.44
542	-14.71
543	-0.95
544	-14.9
545	-14.95
546	-14.52
547	-9.86
548	-12.44
549	-12.25
550	-15.03
551	-7.09
552	-15.68
553	-13.81
554	-12.82
555	-13.82
556	-18.19
557	-15.19
558	-9.69
559	-13.21
560	-11.16
561	-14.48
562	-13.23
563	-12.13
564	-8.53
565	-12.61
566	-13.36
567	-12.04
568	-11.32
569	-14.2
570	-8.47
571	-9.72
572	-12.23
573	-9.74
574	0.61
575	-6.65
576	-7.7
577	-2.43
578	-4.27
579	2.06
580	10.23
581	2.81
582	8.43
583	8.86
584	16.52
585	29.82
586	25.28
587	36.02
588	57.32
589	56.5
590	65.46
591	85.39
592	111.91
593	137.26
594	162.97
595	197.34
596	239.27
597	277.19
598	332.88
599	390.86
600	438.98
601	498.65
602	575.18
603	656.28
604	759.03
605	832.1
606	909.04
607	1004.59
608	1087.71
609	1157.02
610	1240.3
611	1292.94
612	1353.26
613	1391.84
614	1520.76
615	1457.32
616	1462.08
617	1482.7
618	1468.87
619	1511.68
620	1469.08
621	1454.84
622	1398.94
623	1396.88
624	1353.42
625	1326.28
626	1299.35
627	1254.52
628	1213.35
629	1164.14
630	1139.72
631	1101.09
632	1043
633	1012.37
634	959.97
635	928.29
636	888.16
637	825.4
638	794.1
639	758.15
640	700.46
641	671.27
642	618.91
643	590.81
644	556.33
645	525.69
646	506.87
647	456.63
648	423.21
649	416.57
650	388.78
651	355.86
652	328.3
653	310.99
654	289.27
655	274.46
656	253.83
657	242.54
658	226.17
659	204.15
660	186.7
661	180.64
662	170.24
663	160.26
664	153.61
665	138.56
666	130.37
667	125.61
668	114.64
669	109.98
670	92.03
671	101.25
672	80.66
673	84.8
674	85.35
675	77.39
676	83.28
677	66.67
678	60.81
679	61.34
680	61.71
681	53.9
682	52.73
683	45.49
684	49.84
685	43.39
686	46.97
687	36.62
688	52.41
689	37.57
690	75.01
691	33.44
692	33.84
693	26.85
694	24.39
695	25.65
696	21.87
697	18.35
698	21.35
699	18.87
700	17.53
701	11.95
702	11.38
703	7.81
704	8.07
705	8.54
706	2.86
707	0.97
708	1.12
709	0.53
710	2.85
711	-2.07
712	-4.67
713	-4.28
714	-4.1
715	-2.46
716	-7.19
717	0.6
718	-5.57
719	-9.44
720	-12.43
721	-9.37
722	-12.39
723	-7.39
724	-11.16
725	-3.64
726	-11.53
727	-12.58
728	-13.44
729	-12.45
730	-14.51
731	-13.3
732	-9.29
733	-10.4
734	-11.63
735	-16.44
736	-12.57
737	155.52
738	-15.46
739	-12.37
740	-11.38
741	-18.48
742	-13.56
743	-12.96
744	-11.95
745	-14.67
746	-7.77
747	-16.84
748	-15.23
749	-18.21
750	-14.03
751	6.17
752	-15.64
753	-14.97
754	-16.61
755	-15.22
756	-15.66
757	-17.35
758	-14.09
759	-13.14
760	-17.8
761	-12.81
762	-15.05
763	-13.88
764	-16.13
765	-17.12
766	-12.44
767	-14.63
768	-16.42
769	-12.42
770	-9.77
771	-17.36
772	-14.91
773	-16.11
774	-16.36
775	-17.64
776	-13.96
777	-9.61
778	-15.88
779	-14.79
780	-19.46
781	-15.78
782	-13.53
783	-9.73
784	-17.52
785	-18.25
786	-17.81
787	-17.03
788	-18.44
789	-12.04
790	-18.33
791	-19.07
792	-22.44
793	-17.39
794	-14.63
795	-18.41
796	-18.43
797	-14.18
798	-18.96
799	-16.46
800	-16.3
801	-20.57
802	-17.3
803	-20.27
804	-17.33
805	-20.44
806	-19.81
807	-17.03
808	-21.16
809	-16.73
810	-21.28
811	-14.86
812	-17.42
813	-18.48
814	-14.63
815	-16.75
816	-18.16
817	-12.43
818	-17.85
819	-18.31
820	-20.92
821	-15.44
822	-15.88
823	-18.42
824	-16.96
825	-16.13
826	-13.28
827	-15.55
828	-14.4
829	-17.2
830	-20.31
831	-12.59
832	-16.05
833	-19.38
834	-18.27
835	-15.43
836	-13.45
837	-17.89
838	-17.36
839	-16.06
840	-21.82
841	-17.39
842	-18.36
843	-18.46
844	-18.82
845	-19
846	-14.7
847	-20.31
848	-16.4
849	-18.3
850	-13.63
851	-20.93
852	-17.37
853	-16.35
854	-16.73
855	-12.11
856	-12.31
857	-15.87
858	-19.41
859	-19.26
860	-14.34
861	-16.6
862	-16.44
863	-15.83
864	-15.21
865	-15.13
866	-21.37
867	-17.42
868	-15.48
869	-17.24
870	-12.97
871	-20.93
872	-18.58
873	-17.98
874	-18.44
875	-15.36
876	-20.37
877	-14.56
878	-21.07
879	-20.25
880	-13.59
881	-13.76
882	-16.49
883	-15.79
884	-21.36
885	-14.99
886	-14.23
887	-17.53
888	-11.59
889	-18.47
890	-16.79
891	-9.6
892	-19.78
893	-17.82
894	-15.51
895	-18.64
896	-9.95
897	-18.38
898	-21.46
899	61.65
900	-20.58
901	-16.04
902	-17.72
903	-16.58
904	-18.78
905	-15.35
906	-13.73
907	-18.42
908	-12.56
909	-13.85
910	-19.18
911	-17.52
912	-9.89
913	-17.82
914	-8.4
915	-19.72
916	-19.98
917	-17.4
918	-15.97
919	-18.52
920	-14.71
921	-16.87
922	-12.41
923	-18.25
924	-15.38
925	-18.52
926	-15.44
927	-19.47
928	-22.64
929	-16.91
930	-20.14
931	-19.51
932	-19.17
933	-17.26
934	-20.4
935	-17.74
936	-17.35
937	-18.38
938	-12.79
939	-20.76
940	-15.39
941	-11.43
942	-17.68
943	-17.02
944	-18.57
945	-15.77
946	-18.77
947	-18.79
948	-16.22
949	-16.31
950	-18.19
951	-20.87
952	-18.43
953	-13.78
954	-16.8
955	-21.62
956	-17.13
957	-16.43
958	-18.6
959	-15.44
960	-17.2
961	-17.82
962	-13.4
963	-13.71
964	-12.78
965	-17.08
966	-20.42
967	-15.52
968	-16.21
969	-16.44
970	-16.12
971	-19.36
972	-19.71
973	-18.08
974	-18.5
975	-16.39
976	-20
977	-13.12
978	-17.16
979	-20.51
980	-18.77
981	-19.54
982	-15.87
983	-9.44
984	-21.1
985	-8.78
986	-17.02
987	-16.29
988	-11.05
989	-16.96
990	-17.87
991	-12.94
992	-20.37
993	-21.12
994	-21.78
995	-18.89
996	-19.64
997	-16.51
998	-18.22
999	-15.89
1000	-15.69
