Data from White_Screen_USB2G573481__0__10-14-38-512.txt Node

Date: Wed Mar 26 10:14:38 EDT 2025
User: adrie
Spectrometer: USB2G57348
Scans to average: 1
Trigger mode: 4
Integration Time (sec): 1.000000E0
Electric dark correction enabled: true
Boxcar width: 0
XAxis mode: Wavelengths
Number of Pixels in Spectrum: 651
>>>>>Begin Spectral Data<<<<<
350	52.97
351	-13.81
352	-15.6
353	-13.61
354	-9.96
355	-14.11
356	-15.19
357	-16.68
358	-15.49
359	-16.68
360	-15.95
361	-15.04
362	-18.53
363	-6.9
364	-15.71
365	-16.36
366	-6.39
367	-19.81
368	-14.1
369	-10.28
370	-12.68
371	-8.39
372	-18.21
373	-10.75
374	-15.72
375	-13.77
376	-11.1
377	-14.2
378	-14.73
379	-10.82
380	-20.52
381	-12.63
382	-15.61
383	-12.97
384	-11.57
385	3.37
386	-9.87
387	-12.56
388	-14.03
389	-16.38
390	-8.52
391	-18.52
392	-12.83
393	-14.62
394	-11.86
395	-13.01
396	-9.57
397	-6.59
398	-13.77
399	-15
400	-6.12
401	-9.25
402	-8.65
403	-16.34
404	-9.9
405	-14.69
406	-14.31
407	-10.08
408	-6.67
409	-13.57
410	-15.62
411	-11.65
412	-1.97
413	2.93
414	-8.49
415	-11.72
416	-11.63
417	-9.75
418	-8.64
419	-9.51
420	-13.36
421	-6.45
422	-9.44
423	-11.72
424	-10.98
425	-7.05
426	-8.81
427	-10.53
428	-10.59
429	-12.54
430	-13.65
431	-14.68
432	-10.43
433	-11.6
434	-9.5
435	-11.39
436	-3.85
437	-9.53
438	-14.46
439	-2.73
440	-7.93
441	1.32
442	6.04
443	7.27
444	20.42
445	30.28
446	50.72
447	81.19
448	106.43
449	145.9
450	195.55
451	259.84
452	338.28
453	427.07
454	520.72
455	629.21
456	746.2
457	865.47
458	938.68
459	1016.11
460	1085.21
461	1126.3
462	1118.9
463	1076.86
464	1012.43
465	949.34
466	876.31
467	803.96
468	709.34
469	635.55
470	572.26
471	510.87
472	462.82
473	411.41
474	366.64
475	328.2
476	313.51
477	273.86
478	268.13
479	252.21
480	233.72
481	213.98
482	204.4
483	202.06
484	199.9
485	182.69
486	174.21
487	166.1
488	164.25
489	153.33
490	135.46
491	142.8
492	117.57
493	119.52
494	112.59
495	109.32
496	101.13
497	95.02
498	104.11
499	95.23
500	113.03
501	113.87
502	119.2
503	137.67
504	158.64
505	192.66
506	221.92
507	264.42
508	315.41
509	376.02
510	440.41
511	514.59
512	604.29
513	687.11
514	794.4
515	929.58
516	1062.07
517	1210.15
518	1374.62
519	1529.02
520	1684.56
521	1859.81
522	2004.23
523	2181.28
524	2264.79
525	2380.64
526	2429.81
527	2486.75
528	2476.51
529	2446.06
530	2376.57
531	2249.16
532	2173.3
533	2055.45
534	1888.22
535	1782.15
536	1619.89
537	1479.28
538	1361.35
539	1259.7
540	1142.41
541	1056.03
542	990.15
543	939.77
544	882.94
545	829.04
546	802.02
547	755.49
548	735.57
549	717.89
550	689.74
551	672.46
552	646.43
553	621.45
554	607.34
555	593.27
556	553.31
557	553.34
558	532.12
559	507.61
560	507.66
561	461.01
562	434.29
563	409.57
564	405.35
565	381.08
566	358.49
567	326.59
568	302.81
569	284.59
570	268.92
571	251.02
572	218.32
573	203.79
574	196.69
575	168.95
576	157.66
577	156.43
578	148.92
579	137.27
580	143.1
581	122.83
582	122.83
583	110.78
584	114.95
585	120.69
586	123.5
587	120.88
588	133.42
589	129.68
590	145.35
591	158.47
592	185.33
593	200.76
594	230.09
595	256.18
596	290.38
597	332.29
598	382.26
599	431.92
600	482.81
601	549.71
602	606.04
603	672.11
604	793.08
605	851.91
606	950.94
607	1037.27
608	1115.59
609	1191.82
610	1246.35
611	1326.64
612	1372.38
613	1390.88
614	1549.51
615	1453.48
616	1464.64
617	1463.19
618	1461.88
619	1468.51
620	1450.6
621	1437.74
622	1429.32
623	1389.98
624	1383.26
625	1346.17
626	1318.97
627	1259.56
628	1242.59
629	1219.2
630	1183.45
631	1118.62
632	1097.51
633	1053.32
634	998.49
635	977.63
636	927.3
637	890.79
638	835.07
639	792.27
640	730.91
641	697.68
642	653.01
643	613.99
644	588.43
645	536.98
646	511.55
647	476.17
648	437.35
649	430.39
650	394.56
651	356.52
652	344.45
653	315.27
654	293.27
655	281.2
656	259.02
657	238.37
658	227.82
659	207.87
660	188.51
661	189.51
662	170.42
663	159.76
664	144.61
665	140.01
666	127.44
667	127
668	108.99
669	105.65
670	112.15
671	100.44
672	90.53
673	80.6
674	87.18
675	74.23
676	79.87
677	75.22
678	68.78
679	66.68
680	70.8
681	59.12
682	52.09
683	53.38
684	55.1
685	48
686	48.52
687	43.75
688	52.15
689	42.41
690	71.56
691	37.73
692	38.68
693	32.56
694	30.74
695	32.33
696	28.45
697	17.11
698	20.2
699	22.18
700	18.61
701	14.82
702	16.63
703	12.55
704	8.2
705	9.07
706	7.51
707	5.78
708	3.61
709	-0.56
710	4.98
711	-3.08
712	3.79
713	-3.66
714	-0.15
715	-6.94
716	-7.23
717	5.3
718	0.29
719	-8.64
720	-5.62
721	-6.55
722	-6.65
723	-7.69
724	-5.57
725	4.38
726	-9.57
727	-10.82
728	-13.45
729	-11.57
730	-7.84
731	-7.61
732	-13.45
733	-10.59
734	-12.64
735	-15.62
736	-13.72
737	150.37
738	-14.64
739	-9.52
740	-8.66
741	-15.6
742	-14.84
743	-12.94
744	-13.41
745	-13.22
746	-1.23
747	-15.73
748	-13.84
749	-13.61
750	-11.07
751	13.49
752	-16.11
753	-14.12
754	-13.04
755	-17.97
756	-13.19
757	-17.82
758	-13.98
759	-11.4
760	-15
761	-15.73
762	-15.47
763	-15.77
764	-11.73
765	-17.65
766	-15.81
767	-15.84
768	-14.6
769	-14.62
770	-9.18
771	-15.26
772	-12.53
773	-10.9
774	-8.97
775	-14.12
776	-10.9
777	-10.98
778	-16
779	-13.86
780	-18.82
781	-17.78
782	-11.61
783	-11.4
784	-15.57
785	-17.23
786	-15.84
787	-15.71
788	-15.79
789	-8.82
790	-16.24
791	-17.92
792	-15.25
793	-14.83
794	-12.59
795	-17.6
796	-18.52
797	-12.91
798	-19.91
799	-13.48
800	-14.47
801	-17.11
802	-13.06
803	-14.77
804	-15.46
805	-20.7
806	-14.66
807	-14.63
808	-16.79
809	-11.49
810	-16.95
811	-18.68
812	-17.39
813	-16.59
814	-11.88
815	-15.23
816	-14.61
817	-11.8
818	-13.26
819	-19.82
820	-15.92
821	-11.68
822	-17.23
823	-17.74
824	-15.22
825	-11.64
826	-15.43
827	-13.98
828	-15.57
829	-20.13
830	-16.71
831	-12.07
832	-13.81
833	-18.96
834	-16.26
835	-10.5
836	-16.1
837	-15.64
838	-13.14
839	-16.2
840	-18.13
841	-12.56
842	-13.89
843	-17.26
844	-15.82
845	-18.14
846	-12.82
847	-19.4
848	-13.97
849	-17.77
850	-10.27
851	-18.57
852	-15.57
853	-15.56
854	-13.38
855	-13.88
856	-13.88
857	-16.12
858	-14.45
859	-18.74
860	-12.17
861	-18.29
862	-11.66
863	-10.79
864	-13.69
865	-12.55
866	-16.54
867	-16.55
868	-12.29
869	-12.92
870	-14.2
871	-18.14
872	-16.57
873	-16.71
874	-13.16
875	-16.01
876	-16.51
877	-19.32
878	-19
879	-14.69
880	-13.88
881	-13.2
882	-15.66
883	-16.4
884	-16.6
885	-17.17
886	-12.58
887	-16.51
888	-15.03
889	-16.57
890	-16.99
891	-8.71
892	-20.17
893	-16.7
894	-15.75
895	-16.4
896	-12.07
897	-17.13
898	-18.6
899	59.57
900	-21.68
901	-17.49
902	-19.51
903	-16.51
904	-18.88
905	-13.7
906	-17.29
907	-16.6
908	-7.68
909	-12.31
910	-17.51
911	-16.4
912	-8.33
913	-17.59
914	-8.55
915	-16.45
916	-19.54
917	-14.61
918	-14.68
919	-20.73
920	-13.54
921	-15.6
922	-17.15
923	-14.34
924	-13.42
925	-15.55
926	-15.28
927	-15.56
928	-18.68
929	-14.77
930	-17.99
931	-16.33
932	-19.75
933	-19.77
934	-15.1
935	-17.35
936	-15.98
937	-16.71
938	-12.74
939	-17.62
940	-13.57
941	-12.59
942	-16.49
943	-16.41
944	-15.44
945	-14.19
946	-13.19
947	-18.97
948	-13.39
949	-15.69
950	-19.37
951	-19.71
952	-16.54
953	-12.81
954	-11.6
955	-17.33
956	-18.32
957	-13.61
958	-18.35
959	-17.84
960	-17.33
961	-21.75
962	-14.6
963	-15.56
964	-10.59
965	-18.6
966	-19.03
967	-16.75
968	-17.65
969	-18.58
970	-10.86
971	-18.87
972	-17.07
973	-18.55
974	-15.58
975	-21.1
976	-17.45
977	-16.2
978	-20.64
979	-18.97
980	-17.37
981	-16.54
982	-20.31
983	-8.56
984	-19.84
985	0.22
986	-14.98
987	-16.02
988	-11.51
989	-12.26
990	-18.92
991	-11.83
992	-15.57
993	-16.98
994	-19.8
995	-15.9
996	-17.9
997	-17.04
998	-17.55
999	-18.53
1000	-14.98
